	Time	Time (s)	H RPM [rpm]	H COOLANT [°C]	GPS_Speed [km/h]	
Lap: 1	 07.04.443	0.000	0.000	40.449	1.000	
		0.100	0.000	40.449	1.000	
		0.200	0.000	40.449	1.000	
		0.300	0.000	40.449	1.000	
		0.400	0.000	40.449	1.000	
		0.500	0.000	40.449	1.000	
		0.600	0.000	40.449	1.000	
		0.700	0.000	40.449	1.000	
		0.800	0.000	40.449	1.000	
		0.900	0.000	40.449	1.000	
		1.000	0.000	40.449	1.000	
		1.100	0.000	40.449	1.000	
		1.200	0.000	40.449	1.000	
		1.300	0.000	40.449	1.000	
		1.400	0.000	40.449	1.000	
		1.500	0.000	40.449	1.000	
		1.600	0.000	40.449	1.000	
		1.700	0.000	40.449	1.000	
		1.800	0.000	40.449	1.000	
		1.900	0.000	40.449	1.000	
		2.000	0.000	40.449	1.000	
		2.100	0.000	40.449	1.000	
		2.200	0.000	40.449	1.000	
		2.300	0.000	40.449	1.000	
		2.400	0.000	40.449	1.000	
		2.500	0.000	40.449	1.000	
		2.600	0.000	40.449	1.000	
		2.700	0.000	40.449	1.000	
		2.800	0.000	40.449	1.000	
		2.900	0.000	40.449	1.000	
		3.000	0.000	40.449	1.000	
		3.100	0.000	40.449	1.000	
		3.200	0.000	40.449	1.000	
		3.300	0.000	40.449	1.000	
		3.400	0.000	40.449	1.000	
		3.500	128.655	40.449	1.000	
		3.600	2587.310	40.449	1.000	
		3.700	2856.526	40.449	1.000	
		3.800	2838.979	40.449	1.000	
		3.900	2829.469	40.449	1.000	
		4.000	2865.444	40.449	1.000	
		4.100	2859.814	40.449	1.000	
		4.200	2956.864	40.449	1.000	
		4.300	2912.576	40.449	1.000	
		4.400	2568.190	40.449	1.000	
		4.500	2009.120	40.449	1.000	
		4.600	1479.328	40.449	1.000	
		4.700	1673.107	40.449	1.000	
		4.800	2343.908	40.449	1.000	
		4.900	2930.933	40.449	1.000	
		5.000	3037.766	40.449	1.000	
		5.100	3255.965	40.449	1.000	
		5.200	3968.486	40.449	1.000	
		5.300	3755.175	40.449	1.000	
		5.400	3901.342	40.449	1.000	
		5.500	3636.687	40.449	1.000	
		5.600	3271.371	40.447	1.000	
		5.700	3597.327	40.413	1.000	
		5.800	3880.208	40.380	1.000	
		5.900	3622.207	40.365	1.000	
		6.000	3275.465	40.350	1.000	
		6.100	3760.014	40.350	1.000	
		6.200	4067.135	40.350	1.000	
		6.300	3717.961	40.350	1.000	
		6.400	3528.971	40.350	1.000	
		6.500	3765.944	40.350	1.000	
		6.600	4064.193	40.350	1.000	
		6.700	4008.592	40.350	1.000	
		6.800	3739.819	40.350	1.000	
		6.900	3886.041	40.350	1.000	
		7.000	3859.654	40.350	1.000	
		7.100	3731.758	40.350	1.000	
		7.200	3655.384	40.350	1.000	
		7.300	3650.471	40.350	1.000	
		7.400	3699.449	40.351	1.000	
		7.500	3481.188	40.358	1.000	
		7.600	3377.044	40.368	1.000	
		7.700	3392.926	40.411	1.000	
		7.800	3586.837	40.449	1.000	
		7.900	3520.753	40.449	1.000	
		8.000	3167.422	40.449	1.000	
		8.100	3218.141	40.449	1.000	
		8.200	3686.131	40.449	1.000	
		8.300	3782.563	40.449	0.999	
		8.400	3315.507	40.449	0.994	
		8.500	3037.603	40.449	0.989	
		8.600	3173.687	40.454	0.984	
		8.700	3664.275	40.494	0.978	
		8.800	3909.307	40.531	0.973	
		8.900	4011.285	40.541	0.968	
		9.000	4045.214	40.549	0.963	
		9.100	3954.515	40.549	0.957	
		9.200	4006.660	40.549	0.952	
		9.300	3917.069	40.549	0.947	
		9.400	3841.189	40.553	0.941	
		9.500	3818.581	40.581	0.936	
		9.600	3733.052	40.608	0.931	
		9.700	3784.361	40.630	0.926	
		9.800	3838.567	40.649	0.920	
		9.900	3918.438	40.649	0.915	
		10.000	3859.300	40.649	0.910	
		10.100	3967.678	40.649	0.905	
		10.200	3920.220	40.652	0.887	
		10.300	3796.093	40.668	0.786	
		10.400	3569.099	40.687	0.672	
		10.500	3574.205	40.720	0.486	
		10.600	3948.128	40.750	0.386	
		10.700	3934.283	40.750	0.286	
		10.800	3628.740	40.750	0.193	
		10.900	3804.461	40.750	0.143	
		11.000	3901.041	40.750	0.099	
		11.100	3661.228	40.754	0.090	
		11.200	3979.571	40.765	0.080	
		11.300	3732.491	40.811	0.071	
		11.400	3921.696	40.850	0.062	
		11.500	3860.759	40.850	0.053	
		11.600	3749.232	40.850	0.044	
		11.700	3651.363	40.850	0.035	
		11.800	3749.855	40.855	0.026	
		11.900	3839.900	40.895	0.017	
		12.000	3805.033	40.929	0.008	
		12.100	3716.886	40.940	0.000	
		12.200	3756.894	40.950	0.000	
		12.300	3853.938	40.950	0.000	
		12.400	3828.733	40.954	0.000	
		12.500	3861.288	40.982	0.000	
		12.600	4123.254	41.010	0.000	
		12.700	4699.167	41.031	0.000	
		12.800	4864.257	41.050	0.000	
		12.900	5174.036	41.050	0.000	
		13.000	5816.216	41.053	0.000	
		13.100	6786.423	41.070	0.000	
		13.200	7601.876	41.091	0.000	
		13.300	7671.702	41.123	0.000	
		13.400	7588.666	41.150	0.000	
		13.500	7405.083	41.150	0.000	
		13.600	7021.369	41.151	0.000	
		13.700	6521.226	41.159	0.000	
		13.800	5905.089	41.173	0.000	
		13.900	5250.836	41.215	0.000	
		14.000	4811.693	41.250	0.000	
		14.100	4624.896	41.251	0.000	
		14.200	4369.420	41.260	0.000	
		14.300	4130.952	41.306	0.000	
		14.400	4165.984	41.345	0.000	
		14.500	4132.330	41.347	0.000	
		14.600	3985.457	41.350	0.000	
		14.700	3929.499	41.350	0.000	
		14.800	4004.180	41.357	0.000	
		14.900	4304.565	41.394	0.000	
		15.000	5059.194	41.427	0.000	
		15.100	5947.581	41.440	0.000	
		15.200	7029.772	41.456	0.000	
		15.300	7487.999	41.485	0.000	
		15.400	7555.093	41.513	0.000	
		15.500	7901.912	41.533	0.000	
		15.600	8006.099	41.554	0.000	
		15.700	7728.999	41.577	0.000	
		15.800	7714.320	41.601	0.000	
		15.900	7677.148	41.628	0.000	
		16.000	7795.951	41.653	0.000	
		16.100	7925.794	41.669	0.000	
		16.200	7735.968	41.689	0.000	
		16.300	7763.868	41.723	0.000	
		16.400	7718.823	41.752	0.000	
		16.500	7521.868	41.764	0.000	
		16.600	7122.938	41.781	0.000	
		16.700	6594.411	41.819	0.000	
		16.800	5936.096	41.851	0.000	
		16.900	5289.932	41.856	0.000	
		17.000	4878.189	41.870	0.000	
		17.100	4615.765	41.915	0.000	
		17.200	4306.270	41.949	0.000	
		17.300	4128.233	41.949	0.000	
		17.400	4106.915	41.960	0.000	
		17.500	4084.809	42.008	0.000	
		17.600	4078.573	42.055	0.000	
		17.700	4077.489	42.101	0.000	
		17.800	4113.252	42.139	0.000	
		17.900	4095.058	42.145	0.000	
		18.000	4127.490	42.159	0.000	
		18.100	4127.266	42.196	0.000	
		18.200	4110.237	42.236	0.000	
		18.300	4091.720	42.282	0.000	
		18.400	4110.366	42.329	0.000	
		18.500	4110.779	42.375	0.000	
		18.600	4146.066	42.416	0.000	
		18.700	4138.807	42.435	0.000	
		18.800	4120.217	42.455	0.000	
		18.900	4130.748	42.478	0.000	
		19.000	4137.786	42.507	0.000	
		19.100	4113.609	42.554	0.000	
		19.200	4141.815	42.601	0.000	
		19.300	4179.801	42.647	0.000	
		19.400	4118.605	42.691	0.000	
		19.500	4100.309	42.725	0.000	
		19.600	4058.990	42.752	0.000	
		19.700	4065.742	42.762	0.000	
		19.800	4233.689	42.782	0.000	
		19.900	4113.091	42.830	0.000	
		20.000	4090.715	42.878	0.000	
		20.100	4099.315	42.925	0.000	
		20.200	4105.885	42.973	0.000	
		20.300	4149.232	43.020	0.000	
		20.400	4132.656	43.066	0.000	
		20.500	4066.920	43.113	0.000	
		20.600	4083.189	43.147	0.000	
		20.700	4076.924	43.149	0.000	
		20.800	4073.269	43.161	0.000	
		20.900	4124.651	43.203	0.000	
		21.000	4114.234	43.247	0.000	
		21.100	4088.016	43.293	0.000	
		21.200	4139.869	43.330	0.000	
		21.300	4076.256	43.341	0.000	
		21.400	4066.215	43.359	0.000	
		21.500	4121.335	43.392	0.000	
		21.600	4139.766	43.429	0.000	
		21.700	4071.734	43.475	0.000	
		21.800	4126.536	43.523	0.000	
		21.900	4139.804	43.570	0.000	
		22.000	4134.107	43.610	0.000	
		22.100	4103.605	43.633	0.000	
		22.200	4110.416	43.656	0.000	
		22.300	4083.573	43.676	0.000	
		22.400	4099.111	43.704	0.000	
		22.500	4113.985	43.752	0.000	
		22.600	4111.063	43.799	0.000	
		22.700	4050.415	43.846	0.000	
		22.800	4046.246	43.890	0.000	
		22.900	4121.421	43.925	0.000	
		23.000	4118.240	43.952	0.000	
		23.100	4106.485	43.961	0.000	
		23.200	4101.950	43.982	0.000	
		23.300	4083.258	44.029	0.000	
		23.400	4147.401	44.075	0.000	
		23.500	4123.634	44.119	0.000	
		23.600	4090.324	44.150	0.000	
		23.700	4111.636	44.150	0.000	
		23.800	4114.950	44.164	0.000	
		23.900	4127.475	44.210	0.000	
		24.000	4075.259	44.257	0.000	
		24.100	4109.240	44.306	0.000	
		24.200	4116.615	44.340	0.000	
		24.300	4090.018	44.346	0.000	
		24.400	4069.043	44.362	0.000	
		24.500	4066.912	44.400	0.000	
		24.600	4072.989	44.441	0.000	
		24.700	4091.781	44.489	0.000	
		24.800	4077.313	44.536	0.000	
		24.900	4014.453	44.582	0.000	
		25.000	4037.873	44.628	0.000	
		25.100	4096.139	44.674	0.000	
		25.200	4077.440	44.712	0.000	
		25.300	4071.371	44.735	0.000	
		25.400	4055.388	44.757	0.000	
		25.500	4042.752	44.779	0.000	
		25.600	4105.243	44.811	0.000	
		25.700	4070.655	44.858	0.000	
		25.800	4101.194	44.900	0.000	
		25.900	4073.389	44.930	0.000	
		26.000	4093.487	44.955	0.000	
		26.100	4100.562	44.971	0.000	
		26.200	4038.415	44.997	0.000	
		26.300	4084.446	45.044	0.000	
		26.400	4096.631	45.088	0.000	
		26.500	4079.116	45.125	0.000	
		26.600	4074.356	45.152	0.000	
		26.700	4082.340	45.158	0.000	
		26.800	4071.734	45.178	0.000	
		26.900	4076.086	45.224	0.000	
		27.000	4103.734	45.271	0.000	
		27.100	4086.356	45.318	0.000	
		27.200	4080.098	45.349	0.000	
		27.300	4090.672	45.349	0.000	
		27.400	4072.327	45.382	0.000	
		27.500	4135.966	45.470	0.000	
		27.600	4108.586	45.531	0.000	
		27.700	4054.215	45.542	0.000	
		27.800	4026.397	45.564	0.000	
		27.900	4094.055	45.603	0.000	
		28.000	4122.994	45.645	0.000	
		28.100	4060.645	45.693	0.000	
		28.200	4094.766	45.728	0.000	
		28.300	4131.079	45.741	0.000	
		28.400	4091.955	45.761	0.000	
		28.500	4069.157	45.790	0.000	
		28.600	4079.135	45.826	0.000	
		28.700	4074.545	45.873	0.000	
		28.800	4083.322	45.912	0.000	
		28.900	4105.045	45.935	0.000	
		29.000	4087.693	45.958	0.000	
		29.100	4055.956	45.978	0.000	
		29.200	4084.620	46.009	0.000	
		29.300	4103.687	46.055	0.000	
		29.400	4073.297	46.097	0.000	
		29.500	4028.325	46.130	0.000	
		29.600	4081.542	46.154	0.000	
		29.700	4108.088	46.166	0.000	
		29.800	4118.537	46.191	0.000	
		29.900	4104.084	46.237	0.000	
		30.000	4095.389	46.284	0.000	
		30.100	4104.959	46.331	0.000	
		30.200	4099.027	46.377	0.000	
		30.300	4102.509	46.422	0.000	
		30.400	4117.381	46.450	0.000	
		30.500	4123.785	46.450	0.000	
		30.600	4109.472	46.467	0.000	
		30.700	4069.370	46.509	0.000	
		30.800	4063.525	46.554	0.000	
		30.900	4098.219	46.601	0.000	
		31.000	4174.972	46.648	0.000	
		31.100	4122.603	46.694	0.000	
		31.200	4070.069	46.727	0.000	
		31.300	4086.073	46.741	0.000	
		31.400	4132.847	46.761	0.000	
		31.500	4140.468	46.789	0.000	
		31.600	4116.899	46.825	0.000	
		31.700	4112.609	46.872	0.000	
		31.800	4083.937	46.910	0.000	
		31.900	4109.824	46.935	0.000	
		32.000	4140.561	46.957	0.000	
		32.100	4091.574	46.975	0.000	
		32.200	4111.179	47.005	0.000	
		32.300	4124.962	47.050	0.000	
		32.400	4128.642	47.092	0.000	
		32.500	4096.526	47.129	0.000	
		32.600	4118.958	47.152	0.000	
		32.700	4135.656	47.158	0.000	
		32.800	4088.319	47.182	0.000	
		32.900	4122.081	47.230	0.000	
		33.000	4107.841	47.277	0.000	
		33.100	4121.352	47.323	0.000	
		33.200	4109.197	47.350	0.000	
		33.300	4077.932	47.350	0.000	
		33.400	4098.692	47.370	0.000	
		33.500	4091.643	47.414	0.000	
		33.600	4118.051	47.460	0.000	
		33.700	4121.979	47.506	0.000	
		33.800	4104.366	47.536	0.000	
		33.900	4105.672	47.545	0.000	
		34.000	4125.160	47.565	0.000	
		34.100	4110.514	47.599	0.000	
		34.200	4095.696	47.638	0.000	
		34.300	4099.801	47.684	0.000	
		34.400	4120.680	47.718	0.000	
		34.500	4108.602	47.738	0.000	
		34.600	4099.887	47.760	0.000	
		34.700	4147.343	47.785	0.000	
		34.800	4126.149	47.819	0.000	
		34.900	4106.562	47.866	0.000	
		35.000	4141.455	47.905	0.000	
		35.100	4134.964	47.934	0.000	
		35.200	4098.456	47.956	0.000	
		35.300	4086.516	47.969	0.000	
		35.400	4113.379	47.997	0.000	
		35.500	4116.379	48.044	0.000	
		35.600	4102.503	48.090	0.000	
		35.700	4129.242	48.136	0.000	
		35.800	4147.214	48.182	0.000	
		35.900	4153.868	48.226	0.000	
		36.000	4129.908	48.250	0.000	
		36.100	4079.778	48.250	0.000	
		36.200	4077.407	48.272	0.000	
		36.300	4107.993	48.317	0.000	
		36.400	4100.231	48.362	0.000	
		36.500	4101.521	48.407	0.000	
		36.600	4110.555	48.435	0.000	
		36.700	4114.320	48.445	0.000	
		36.800	4135.596	48.466	0.000	
		36.900	4121.662	48.500	0.000	
		37.000	4129.729	48.525	0.000	
		37.100	4124.799	48.541	0.000	
		37.200	4096.204	48.563	0.000	
		37.300	4119.162	48.591	0.000	
		37.400	4131.773	48.628	0.000	
		37.500	4141.661	48.674	0.000	
		37.600	4143.660	48.721	0.000	
		37.700	4128.137	48.767	0.000	
		37.800	4103.025	48.805	0.000	
		37.900	4050.480	48.835	0.000	
		38.000	4100.983	48.856	0.000	
		38.100	4129.673	48.869	0.000	
		38.200	4107.753	48.894	0.000	
		38.300	4139.237	48.931	0.000	
		38.400	4154.388	48.953	0.000	
		38.500	4122.416	48.962	0.000	
		38.600	4107.153	48.989	0.000	
		38.700	4123.196	49.036	0.000	
		38.800	4104.834	49.082	0.000	
		38.900	4118.346	49.127	0.000	
		39.000	4088.970	49.150	0.000	
		39.100	4090.094	49.150	0.000	
		39.200	4130.540	49.173	0.000	
		39.300	4131.401	49.221	0.000	
		39.400	4126.261	49.245	0.000	
		39.500	4106.842	49.248	0.000	
		39.600	4107.813	49.271	0.000	
		39.700	4118.223	49.312	0.000	
		39.800	4116.229	49.357	0.000	
		39.900	4121.610	49.405	0.000	
		40.000	4112.034	49.434	0.000	
		40.100	4082.479	49.445	0.000	
		40.200	4104.871	49.467	0.000	
		40.300	4065.313	49.500	0.000	
		40.400	4068.358	49.539	0.000	
		40.500	4108.011	49.585	0.000	
		40.600	4085.243	49.618	0.000	
		40.700	4104.443	49.640	0.000	
		40.800	4147.438	49.662	0.000	
		40.900	4149.466	49.685	0.000	
		41.000	4132.059	49.721	0.000	
		41.100	4118.851	49.769	0.000	
		41.200	4114.724	49.807	0.000	
		41.300	4117.703	49.836	0.000	
		41.400	4107.576	49.857	0.000	
		41.500	4094.845	49.871	0.000	
		41.600	4102.101	49.897	0.000	
		41.700	4128.921	49.934	0.000	
		41.800	4142.836	49.953	0.000	
		41.900	4117.413	49.960	0.000	
		42.000	4087.197	49.988	0.000	
		42.100	4128.459	50.035	0.000	
		42.200	4141.837	50.082	0.000	
		42.300	4127.370	50.131	0.000	
		42.400	4115.154	50.178	0.000	
		42.500	4099.311	50.225	0.000	
		42.600	4121.068	50.272	0.000	
		42.700	4119.633	50.319	0.000	
		42.800	4123.329	50.367	0.000	
		42.900	4133.576	50.415	0.000	
		43.000	4144.089	50.462	0.000	
		43.100	4147.408	50.508	0.000	
		43.200	4135.001	50.554	0.000	
		43.300	4128.878	50.601	0.000	
		43.400	4122.564	50.647	0.000	
		43.500	4140.915	50.693	0.000	
		43.600	4161.256	50.739	0.000	
		43.700	4129.912	50.786	0.000	
		43.800	4120.361	50.818	0.000	
		43.900	4131.346	50.840	0.000	
		44.000	4261.288	50.862	0.000	
		44.100	4665.968	50.883	0.000	
		44.200	5203.436	50.930	0.000	
		44.300	5846.153	50.995	0.000	
		44.400	6478.382	51.068	0.000	
		44.500	6757.913	51.148	0.000	
		44.600	6696.645	51.202	0.000	
		44.700	6284.675	51.236	0.000	
		44.800	5633.643	51.256	0.000	
		44.900	5022.281	51.266	0.000	
		45.000	4639.147	51.298	0.000	
		45.100	4359.947	51.345	0.000	
		45.200	4128.528	51.392	0.000	
		45.300	4037.312	51.438	0.000	
		45.400	4005.156	51.486	0.000	
		45.500	3970.427	51.534	0.000	
		45.600	3981.516	51.581	0.000	
		45.700	4009.110	51.628	0.000	
		45.800	4028.709	51.675	0.000	
		45.900	4033.137	51.722	0.000	
		46.000	4007.477	51.768	0.000	
		46.100	3991.917	51.814	0.000	
		46.200	3971.205	51.838	0.000	
		46.300	3987.851	51.846	0.000	
		46.400	3976.678	51.872	0.000	
		46.500	3953.909	51.909	0.000	
		46.600	3950.287	51.953	0.000	
		46.700	3958.542	52.000	0.000	
		46.800	3997.707	52.048	0.000	
		46.900	4008.469	52.096	0.000	
		47.000	3992.291	52.145	0.000	
		47.100	3958.882	52.193	0.000	
		47.200	3990.559	52.240	0.000	
		47.300	4031.078	52.288	0.000	
		47.400	4021.704	52.335	0.000	
		47.500	4009.106	52.382	0.000	
		47.600	4027.510	52.429	0.000	
		47.700	4034.426	52.477	0.000	
		47.800	4014.728	52.524	0.000	
		47.900	4007.870	52.571	0.000	
		48.000	4006.561	52.619	0.000	
		48.100	4004.677	52.667	0.000	
		48.200	4000.129	52.715	0.000	
		48.300	3975.436	52.763	0.000	
		48.400	3969.077	52.811	0.000	
		48.500	3987.507	52.860	0.000	
		48.600	4004.863	52.909	0.000	
		48.700	4008.044	52.958	0.000	
		48.800	3958.684	53.000	0.000	
		48.900	3953.397	53.037	0.000	
		49.000	3984.817	53.055	0.000	
		49.100	3999.972	53.064	0.000	
		49.200	3964.312	53.098	0.000	
		49.300	3956.909	53.146	0.000	
		49.400	3979.764	53.193	0.000	
		49.500	3997.623	53.241	0.000	
		49.600	3992.884	53.288	0.000	
		49.700	3977.562	53.335	0.000	
		49.800	3960.970	53.382	0.000	
		49.900	3941.822	53.430	0.000	
		50.000	4065.953	53.477	0.000	
		50.100	4511.118	53.522	0.000	
		50.200	5497.232	53.568	0.000	
		50.300	7331.933	53.613	0.000	
		50.400	9069.099	53.659	0.000	
		50.500	9362.642	53.705	0.000	
		50.600	8467.523	53.752	0.000	
		50.700	7329.575	53.799	0.000	
		50.800	6261.993	53.826	0.000	
		50.900	5305.485	53.844	0.000	
		51.000	4656.684	53.867	0.000	
		51.100	4306.083	53.894	0.000	
		51.200	4102.090	53.935	0.000	
		51.300	3998.779	53.982	0.000	
		51.400	3935.985	54.030	0.000	
		51.500	3907.940	54.079	0.000	
		51.600	3915.711	54.127	0.000	
		51.700	3923.405	54.175	0.000	
		51.800	3934.666	54.223	0.000	
		51.900	3974.406	54.271	0.000	
		52.000	3997.565	54.308	0.000	
		52.100	3984.653	54.340	0.000	
		52.200	3981.092	54.360	0.000	
		52.300	3984.670	54.373	0.000	
		52.400	3977.018	54.411	0.000	
		52.500	3974.406	54.458	0.000	
		52.600	3961.001	54.506	0.000	
		52.700	3962.746	54.553	0.000	
		52.800	3969.457	54.601	0.000	
		52.900	3956.769	54.650	0.000	
		53.000	3944.272	54.699	0.000	
		53.100	3958.327	54.747	0.000	
		53.200	3988.500	54.792	0.000	
		53.300	3966.773	54.836	0.000	
		53.400	3927.810	54.851	0.000	
		53.500	3906.534	54.852	0.000	
		53.600	3898.927	54.919	0.000	
		53.700	3868.539	55.012	0.000	
		53.800	3864.335	55.076	0.000	
		53.900	3913.781	55.126	0.000	
		54.000	3964.340	55.143	0.000	
		54.100	3998.208	55.148	0.000	
		54.200	3995.455	55.179	0.000	
		54.300	3997.099	55.220	0.000	
		54.400	4029.255	55.267	0.000	
		54.500	4016.125	55.316	0.000	
		54.600	3979.238	55.365	0.000	
		54.700	3964.065	55.413	0.000	
		54.800	3966.902	55.435	0.000	
		54.900	3977.063	55.447	0.000	
		55.000	3979.229	55.474	0.000	
		55.100	3964.882	55.509	0.000	
		55.200	4009.290	55.552	0.000	
		55.300	4010.468	55.600	0.000	
		55.400	3973.302	55.647	0.000	
		55.500	3970.046	55.694	0.000	
		55.600	3982.104	55.722	0.000	
		55.700	3994.569	55.744	0.000	
		55.800	3937.849	55.767	0.000	
		55.900	3870.756	55.791	0.000	
		56.000	3855.573	55.832	0.000	
		56.100	3850.211	55.879	0.000	
		56.200	3865.478	55.926	0.000	
		56.300	3912.440	55.973	0.000	
		56.400	3946.520	56.021	0.000	
		56.500	3953.290	56.068	0.000	
		56.600	3968.183	56.106	0.000	
		56.700	3978.842	56.141	0.000	
		56.800	3959.466	56.158	0.000	
		56.900	3970.749	56.169	0.000	
		57.000	3945.605	56.207	0.000	
		57.100	3974.187	56.254	0.000	
		57.200	4006.047	56.301	0.000	
		57.300	4038.928	56.348	0.000	
		57.400	4004.758	56.394	0.000	
		57.500	3967.686	56.438	0.000	
		57.600	3973.667	56.450	0.000	
		57.700	3979.418	56.451	0.000	
		57.800	3991.642	56.487	0.000	
		57.900	4014.465	56.534	0.000	
		58.000	4006.944	56.581	0.000	
		58.100	4009.196	56.628	0.000	
		58.200	3988.229	56.643	0.000	
		58.300	3953.818	56.649	0.000	
		58.400	3954.648	56.681	0.000	
		58.500	3975.023	56.721	0.000	
		58.600	3993.551	56.766	0.000	
		58.700	3985.260	56.813	0.000	
		58.800	3961.248	56.860	0.000	
		58.900	3970.392	56.907	0.000	
		59.000	4000.754	56.930	0.000	
		59.100	3966.055	56.946	0.000	
		59.200	3974.209	56.973	0.000	
		59.300	3979.882	57.002	0.000	
		59.400	3955.744	57.045	0.000	
		59.500	3948.600	57.092	0.000	
		59.600	3972.979	57.140	0.000	
		59.700	3937.137	57.187	0.000	
		59.800	3914.855	57.217	0.000	
		59.900	3923.516	57.244	0.000	
		60.000	3916.059	57.264	0.000	
		60.100	3907.828	57.282	0.000	
		60.200	3902.819	57.323	0.000	
		60.300	3904.927	57.371	0.000	
		60.400	3926.112	57.418	0.000	
		60.500	3950.204	57.465	0.000	
		60.600	3970.813	57.505	0.000	
		60.700	3947.044	57.542	0.000	
		60.800	3940.640	57.557	0.000	
		60.900	3980.828	57.567	0.000	
		61.000	3968.492	57.607	0.000	
		61.100	3931.098	57.655	0.000	
		61.200	3964.753	57.698	0.000	
		61.300	3954.523	57.741	0.000	
		61.400	4018.996	57.752	0.000	
		61.500	3993.551	57.755	0.000	
		61.600	3971.740	57.795	0.000	
		61.700	3987.722	57.843	0.000	
		61.800	3967.065	57.891	0.000	
		61.900	3970.586	57.938	0.000	
		62.000	3978.535	57.985	0.000	
		62.100	3988.238	58.032	0.000	
		62.200	3976.453	58.045	0.000	
		62.300	3953.874	58.049	0.000	
		62.400	3934.073	58.083	0.000	
		62.500	3933.312	58.124	0.000	
		62.600	3941.998	58.171	0.000	
		62.700	3932.852	58.219	0.000	
		62.800	3953.187	58.237	0.000	
