	Time	Time (s)	Distance [m]	H RPM [rpm]	H COOLANT [°C]	
Lap: 1	 07.04.443	0.000	0.00	0.000	40.449	
		0.100	0.03	0.000	40.449	
		0.200	0.06	0.000	40.449	
		0.300	0.08	0.000	40.449	
		0.400	0.11	0.000	40.449	
		0.500	0.14	0.000	40.449	
		0.600	0.17	0.000	40.449	
		0.700	0.19	0.000	40.449	
		0.800	0.22	0.000	40.449	
		0.900	0.25	0.000	40.449	
		1.000	0.28	0.000	40.449	
		1.100	0.31	0.000	40.449	
		1.200	0.33	0.000	40.449	
		1.300	0.36	0.000	40.449	
		1.400	0.39	0.000	40.449	
		1.500	0.42	0.000	40.449	
		1.600	0.45	0.000	40.449	
		1.700	0.47	0.000	40.449	
		1.800	0.50	0.000	40.449	
		1.900	0.53	0.000	40.449	
		2.000	0.56	0.000	40.449	
		2.100	0.58	0.000	40.449	
		2.200	0.61	0.000	40.449	
		2.300	0.64	0.000	40.449	
		2.400	0.67	0.000	40.449	
		2.500	0.70	0.000	40.449	
		2.600	0.72	0.000	40.449	
		2.700	0.75	0.000	40.449	
		2.800	0.78	0.000	40.449	
		2.900	0.81	0.000	40.449	
		3.000	0.83	0.000	40.449	
		3.100	0.86	0.000	40.449	
		3.200	0.89	0.000	40.449	
		3.300	0.92	0.000	40.449	
		3.400	0.95	0.000	40.449	
		3.500	0.97	128.655	40.449	
		3.600	1.00	2587.310	40.449	
		3.700	1.03	2856.526	40.449	
		3.800	1.06	2838.979	40.449	
		3.900	1.08	2829.469	40.449	
		4.000	1.11	2865.444	40.449	
		4.100	1.14	2859.814	40.449	
		4.200	1.17	2956.864	40.449	
		4.300	1.20	2912.576	40.449	
		4.400	1.22	2568.190	40.449	
		4.500	1.25	2009.120	40.449	
		4.600	1.28	1479.328	40.449	
		4.700	1.31	1673.107	40.449	
		4.800	1.34	2343.908	40.449	
		4.900	1.36	2930.933	40.449	
		5.000	1.39	3037.766	40.449	
		5.100	1.42	3255.965	40.449	
		5.200	1.45	3968.486	40.449	
		5.300	1.47	3755.175	40.449	
		5.400	1.50	3901.342	40.449	
		5.500	1.53	3636.687	40.449	
		5.600	1.56	3271.371	40.447	
		5.700	1.59	3597.327	40.413	
		5.800	1.61	3880.208	40.380	
		5.900	1.64	3622.207	40.365	
		6.000	1.67	3275.465	40.350	
		6.100	1.70	3760.014	40.350	
		6.200	1.72	4067.135	40.350	
		6.300	1.75	3717.961	40.350	
		6.400	1.78	3528.971	40.350	
		6.500	1.81	3765.944	40.350	
		6.600	1.84	4064.193	40.350	
		6.700	1.86	4008.592	40.350	
		6.800	1.89	3739.819	40.350	
		6.900	1.92	3886.041	40.350	
		7.000	1.95	3859.654	40.350	
		7.100	1.97	3731.758	40.350	
		7.200	2.00	3655.384	40.350	
		7.300	2.03	3650.471	40.350	
		7.400	2.06	3699.449	40.351	
		7.500	2.09	3481.188	40.358	
		7.600	2.11	3377.044	40.368	
		7.700	2.14	3392.926	40.411	
		7.800	2.17	3586.837	40.449	
		7.900	2.20	3520.753	40.449	
		8.000	2.22	3167.422	40.449	
		8.100	2.25	3218.141	40.449	
		8.200	2.28	3686.131	40.449	
		8.300	2.31	3782.563	40.449	
		8.400	2.34	3315.507	40.449	
		8.500	2.36	3037.603	40.449	
		8.600	2.39	3173.687	40.454	
		8.700	2.42	3664.275	40.494	
		8.800	2.45	3909.307	40.531	
		8.900	2.47	4011.285	40.541	
		9.000	2.50	4045.214	40.549	
		9.100	2.53	3954.515	40.549	
		9.200	2.55	4006.660	40.549	
		9.300	2.58	3917.069	40.549	
		9.400	2.60	3841.189	40.553	
		9.500	2.63	3818.581	40.581	
		9.600	2.66	3733.052	40.608	
		9.700	2.68	3784.361	40.630	
		9.800	2.71	3838.567	40.649	
		9.900	2.73	3918.438	40.649	
		10.000	2.76	3859.300	40.649	
		10.100	2.78	3967.678	40.649	
		10.200	2.81	3920.220	40.652	
		10.300	2.83	3796.093	40.668	
		10.400	2.85	3569.099	40.687	
		10.500	2.86	3574.205	40.720	
		10.600	2.87	3948.128	40.750	
		10.700	2.88	3934.283	40.750	
		10.800	2.89	3628.740	40.750	
		10.900	2.89	3804.461	40.750	
		11.000	2.89	3901.041	40.750	
		11.100	2.90	3661.228	40.754	
		11.200	2.90	3979.571	40.765	
		11.300	2.90	3732.491	40.811	
		11.400	2.90	3921.696	40.850	
		11.500	2.90	3860.759	40.850	
		11.600	2.90	3749.232	40.850	
		11.700	2.91	3651.363	40.850	
		11.800	2.91	3749.855	40.855	
		11.900	2.91	3839.900	40.895	
		12.000	2.91	3805.033	40.929	
		12.100	2.91	3716.886	40.940	
		12.200	2.91	3756.894	40.950	
		12.300	2.91	3853.938	40.950	
		12.400	2.91	3828.733	40.954	
		12.500	2.91	3861.288	40.982	
		12.600	2.91	4123.254	41.010	
		12.700	2.91	4699.167	41.031	
		12.800	2.91	4864.257	41.050	
		12.900	2.91	5174.036	41.050	
		13.000	2.91	5816.216	41.053	
		13.100	2.91	6786.423	41.070	
		13.200	2.91	7601.876	41.091	
		13.300	2.91	7671.702	41.123	
		13.400	2.91	7588.666	41.150	
		13.500	2.91	7405.083	41.150	
		13.600	2.91	7021.369	41.151	
		13.700	2.91	6521.226	41.159	
		13.800	2.91	5905.089	41.173	
		13.900	2.91	5250.836	41.215	
		14.000	2.91	4811.693	41.250	
		14.100	2.91	4624.896	41.251	
		14.200	2.91	4369.420	41.260	
		14.300	2.91	4130.952	41.306	
		14.400	2.91	4165.984	41.345	
		14.500	2.91	4132.330	41.347	
		14.600	2.91	3985.457	41.350	
		14.700	2.91	3929.499	41.350	
		14.800	2.91	4004.180	41.357	
		14.900	2.91	4304.565	41.394	
		15.000	2.91	5059.194	41.427	
		15.100	2.91	5947.581	41.440	
		15.200	2.91	7029.772	41.456	
		15.300	2.91	7487.999	41.485	
		15.400	2.91	7555.093	41.513	
		15.500	2.91	7901.912	41.533	
		15.600	2.91	8006.099	41.554	
		15.700	2.91	7728.999	41.577	
		15.800	2.91	7714.320	41.601	
		15.900	2.91	7677.148	41.628	
		16.000	2.91	7795.951	41.653	
		16.100	2.91	7925.794	41.669	
		16.200	2.91	7735.968	41.689	
		16.300	2.91	7763.868	41.723	
		16.400	2.91	7718.823	41.752	
		16.500	2.91	7521.868	41.764	
		16.600	2.91	7122.938	41.781	
		16.700	2.91	6594.411	41.819	
		16.800	2.91	5936.096	41.851	
		16.900	2.91	5289.932	41.856	
		17.000	2.91	4878.189	41.870	
		17.100	2.91	4615.765	41.915	
		17.200	2.91	4306.270	41.949	
		17.300	2.91	4128.233	41.949	
		17.400	2.91	4106.915	41.960	
		17.500	2.91	4084.809	42.008	
		17.600	2.91	4078.573	42.055	
		17.700	2.91	4077.489	42.101	
		17.800	2.91	4113.252	42.139	
		17.900	2.91	4095.058	42.145	
		18.000	2.91	4127.490	42.159	
		18.100	2.91	4127.266	42.196	
		18.200	2.91	4110.237	42.236	
		18.300	2.91	4091.720	42.282	
		18.400	2.91	4110.366	42.329	
		18.500	2.91	4110.779	42.375	
		18.600	2.91	4146.066	42.416	
		18.700	2.91	4138.807	42.435	
		18.800	2.91	4120.217	42.455	
		18.900	2.91	4130.748	42.478	
		19.000	2.91	4137.786	42.507	
		19.100	2.91	4113.609	42.554	
		19.200	2.91	4141.815	42.601	
		19.300	2.91	4179.801	42.647	
		19.400	2.91	4118.605	42.691	
		19.500	2.91	4100.309	42.725	
		19.600	2.91	4058.990	42.752	
		19.700	2.91	4065.742	42.762	
		19.800	2.91	4233.689	42.782	
		19.900	2.91	4113.091	42.830	
		20.000	2.91	4090.715	42.878	
		20.100	2.92	4099.315	42.925	
		20.200	2.92	4105.885	42.973	
		20.300	2.92	4149.232	43.020	
		20.400	2.92	4132.656	43.066	
		20.500	2.92	4066.920	43.113	
		20.600	2.92	4083.189	43.147	
		20.700	2.92	4076.924	43.149	
		20.800	2.92	4073.269	43.161	
		20.900	2.92	4124.651	43.203	
		21.000	2.92	4114.234	43.247	
		21.100	2.92	4088.016	43.293	
		21.200	2.92	4139.869	43.330	
		21.300	2.92	4076.256	43.341	
		21.400	2.92	4066.215	43.359	
		21.500	2.92	4121.335	43.392	
		21.600	2.92	4139.766	43.429	
		21.700	2.92	4071.734	43.475	
		21.800	2.92	4126.536	43.523	
		21.900	2.92	4139.804	43.570	
		22.000	2.92	4134.107	43.610	
		22.100	2.92	4103.605	43.633	
		22.200	2.92	4110.416	43.656	
		22.300	2.92	4083.573	43.676	
		22.400	2.92	4099.111	43.704	
		22.500	2.92	4113.985	43.752	
		22.600	2.92	4111.063	43.799	
		22.700	2.92	4050.415	43.846	
		22.800	2.92	4046.246	43.890	
		22.900	2.92	4121.421	43.925	
		23.000	2.92	4118.240	43.952	
		23.100	2.92	4106.485	43.961	
		23.200	2.92	4101.950	43.982	
		23.300	2.92	4083.258	44.029	
		23.400	2.92	4147.401	44.075	
		23.500	2.92	4123.634	44.119	
		23.600	2.92	4090.324	44.150	
		23.700	2.92	4111.636	44.150	
		23.800	2.92	4114.950	44.164	
		23.900	2.92	4127.475	44.210	
		24.000	2.92	4075.259	44.257	
		24.100	2.92	4109.240	44.306	
		24.200	2.92	4116.615	44.340	
		24.300	2.92	4090.018	44.346	
		24.400	2.92	4069.043	44.362	
		24.500	2.92	4066.912	44.400	
		24.600	2.92	4072.989	44.441	
		24.700	2.92	4091.781	44.489	
		24.800	2.92	4077.313	44.536	
		24.900	2.92	4014.453	44.582	
		25.000	2.92	4037.873	44.628	
		25.100	2.92	4096.139	44.674	
		25.200	2.92	4077.440	44.712	
		25.300	2.92	4071.371	44.735	
		25.400	2.92	4055.388	44.757	
		25.500	2.92	4042.752	44.779	
		25.600	2.92	4105.243	44.811	
		25.700	2.92	4070.655	44.858	
		25.800	2.92	4101.194	44.900	
		25.900	2.92	4073.389	44.930	
		26.000	2.92	4093.487	44.955	
		26.100	2.92	4100.562	44.971	
		26.200	2.92	4038.415	44.997	
		26.300	2.92	4084.446	45.044	
		26.400	2.92	4096.631	45.088	
		26.500	2.92	4079.116	45.125	
		26.600	2.92	4074.356	45.152	
		26.700	2.92	4082.340	45.158	
		26.800	2.92	4071.734	45.178	
		26.900	2.92	4076.086	45.224	
		27.000	2.92	4103.734	45.271	
		27.100	2.92	4086.356	45.318	
		27.200	2.92	4080.098	45.349	
		27.300	2.92	4090.672	45.349	
		27.400	2.92	4072.327	45.382	
		27.500	2.92	4135.966	45.470	
		27.600	2.92	4108.586	45.531	
		27.700	2.92	4054.215	45.542	
		27.800	2.92	4026.397	45.564	
		27.900	2.92	4094.055	45.603	
		28.000	2.92	4122.994	45.645	
		28.100	2.92	4060.645	45.693	
		28.200	2.92	4094.766	45.728	
		28.300	2.92	4131.079	45.741	
		28.400	2.92	4091.955	45.761	
		28.500	2.92	4069.157	45.790	
		28.600	2.92	4079.135	45.826	
		28.700	2.92	4074.545	45.873	
		28.800	2.92	4083.322	45.912	
		28.900	2.92	4105.045	45.935	
		29.000	2.92	4087.693	45.958	
		29.100	2.92	4055.956	45.978	
		29.200	2.92	4084.620	46.009	
		29.300	2.92	4103.687	46.055	
		29.400	2.92	4073.297	46.097	
		29.500	2.92	4028.325	46.130	
		29.600	2.92	4081.542	46.154	
		29.700	2.92	4108.088	46.166	
		29.800	2.92	4118.537	46.191	
		29.900	2.92	4104.084	46.237	
		30.000	2.92	4095.389	46.284	
		30.100	2.93	4104.959	46.331	
		30.200	2.93	4099.027	46.377	
		30.300	2.93	4102.509	46.422	
		30.400	2.93	4117.381	46.450	
		30.500	2.93	4123.785	46.450	
		30.600	2.93	4109.472	46.467	
		30.700	2.93	4069.370	46.509	
		30.800	2.93	4063.525	46.554	
		30.900	2.93	4098.219	46.601	
		31.000	2.93	4174.972	46.648	
		31.100	2.93	4122.603	46.694	
		31.200	2.93	4070.069	46.727	
		31.300	2.93	4086.073	46.741	
		31.400	2.93	4132.847	46.761	
		31.500	2.93	4140.468	46.789	
		31.600	2.93	4116.899	46.825	
		31.700	2.93	4112.609	46.872	
		31.800	2.93	4083.937	46.910	
		31.900	2.93	4109.824	46.935	
		32.000	2.93	4140.561	46.957	
		32.100	2.93	4091.574	46.975	
		32.200	2.93	4111.179	47.005	
		32.300	2.93	4124.962	47.050	
		32.400	2.93	4128.642	47.092	
		32.500	2.93	4096.526	47.129	
		32.600	2.93	4118.958	47.152	
		32.700	2.93	4135.656	47.158	
		32.800	2.93	4088.319	47.182	
		32.900	2.93	4122.081	47.230	
		33.000	2.93	4107.841	47.277	
		33.100	2.93	4121.352	47.323	
		33.200	2.93	4109.197	47.350	
		33.300	2.93	4077.932	47.350	
		33.400	2.93	4098.692	47.370	
		33.500	2.93	4091.643	47.414	
		33.600	2.93	4118.051	47.460	
		33.700	2.93	4121.979	47.506	
		33.800	2.93	4104.366	47.536	
		33.900	2.93	4105.672	47.545	
		34.000	2.93	4125.160	47.565	
		34.100	2.93	4110.514	47.599	
		34.200	2.93	4095.696	47.638	
		34.300	2.93	4099.801	47.684	
		34.400	2.93	4120.680	47.718	
		34.500	2.93	4108.602	47.738	
		34.600	2.93	4099.887	47.760	
		34.700	2.93	4147.343	47.785	
		34.800	2.93	4126.149	47.819	
		34.900	2.93	4106.562	47.866	
		35.000	2.93	4141.455	47.905	
		35.100	2.93	4134.964	47.934	
		35.200	2.93	4098.456	47.956	
		35.300	2.93	4086.516	47.969	
		35.400	2.93	4113.379	47.997	
		35.500	2.93	4116.379	48.044	
		35.600	2.93	4102.503	48.090	
		35.700	2.93	4129.242	48.136	
		35.800	2.93	4147.214	48.182	
		35.900	2.93	4153.868	48.226	
		36.000	2.93	4129.908	48.250	
		36.100	2.93	4079.778	48.250	
		36.200	2.93	4077.407	48.272	
		36.300	2.93	4107.993	48.317	
		36.400	2.93	4100.231	48.362	
		36.500	2.93	4101.521	48.407	
		36.600	2.93	4110.555	48.435	
		36.700	2.93	4114.320	48.445	
		36.800	2.93	4135.596	48.466	
		36.900	2.93	4121.662	48.500	
		37.000	2.93	4129.729	48.525	
		37.100	2.93	4124.799	48.541	
		37.200	2.93	4096.204	48.563	
		37.300	2.93	4119.162	48.591	
		37.400	2.93	4131.773	48.628	
		37.500	2.93	4141.661	48.674	
		37.600	2.93	4143.660	48.721	
		37.700	2.93	4128.137	48.767	
		37.800	2.93	4103.025	48.805	
		37.900	2.93	4050.480	48.835	
		38.000	2.93	4100.983	48.856	
		38.100	2.93	4129.673	48.869	
		38.200	2.93	4107.753	48.894	
		38.300	2.93	4139.237	48.931	
		38.400	2.93	4154.388	48.953	
		38.500	2.93	4122.416	48.962	
		38.600	2.93	4107.153	48.989	
		38.700	2.93	4123.196	49.036	
		38.800	2.93	4104.834	49.082	
		38.900	2.93	4118.346	49.127	
		39.000	2.93	4088.970	49.150	
		39.100	2.93	4090.094	49.150	
		39.200	2.93	4130.540	49.173	
		39.300	2.93	4131.401	49.221	
		39.400	2.93	4126.261	49.245	
		39.500	2.93	4106.842	49.248	
		39.600	2.93	4107.813	49.271	
		39.700	2.93	4118.223	49.312	
		39.800	2.93	4116.229	49.357	
		39.900	2.93	4121.610	49.405	
		40.000	2.93	4112.034	49.434	
		40.100	2.94	4082.479	49.445	
		40.200	2.94	4104.871	49.467	
		40.300	2.94	4065.313	49.500	
		40.400	2.94	4068.358	49.539	
		40.500	2.94	4108.011	49.585	
		40.600	2.94	4085.243	49.618	
		40.700	2.94	4104.443	49.640	
		40.800	2.94	4147.438	49.662	
		40.900	2.94	4149.466	49.685	
		41.000	2.94	4132.059	49.721	
		41.100	2.94	4118.851	49.769	
		41.200	2.94	4114.724	49.807	
		41.300	2.94	4117.703	49.836	
		41.400	2.94	4107.576	49.857	
		41.500	2.94	4094.845	49.871	
		41.600	2.94	4102.101	49.897	
		41.700	2.94	4128.921	49.934	
		41.800	2.94	4142.836	49.953	
		41.900	2.94	4117.413	49.960	
		42.000	2.94	4087.197	49.988	
		42.100	2.94	4128.459	50.035	
		42.200	2.94	4141.837	50.082	
		42.300	2.94	4127.370	50.131	
		42.400	2.94	4115.154	50.178	
		42.500	2.94	4099.311	50.225	
		42.600	2.94	4121.068	50.272	
		42.700	2.94	4119.633	50.319	
		42.800	2.94	4123.329	50.367	
		42.900	2.94	4133.576	50.415	
		43.000	2.94	4144.089	50.462	
		43.100	2.94	4147.408	50.508	
		43.200	2.94	4135.001	50.554	
		43.300	2.94	4128.878	50.601	
		43.400	2.94	4122.564	50.647	
		43.500	2.94	4140.915	50.693	
		43.600	2.94	4161.256	50.739	
		43.700	2.94	4129.912	50.786	
		43.800	2.94	4120.361	50.818	
		43.900	2.94	4131.346	50.840	
		44.000	2.94	4261.288	50.862	
		44.100	2.94	4665.968	50.883	
		44.200	2.94	5203.436	50.930	
		44.300	2.94	5846.153	50.995	
		44.400	2.94	6478.382	51.068	
		44.500	2.94	6757.913	51.148	
		44.600	2.94	6696.645	51.202	
		44.700	2.94	6284.675	51.236	
		44.800	2.94	5633.643	51.256	
		44.900	2.94	5022.281	51.266	
		45.000	2.94	4639.147	51.298	
		45.100	2.94	4359.947	51.345	
		45.200	2.94	4128.528	51.392	
		45.300	2.94	4037.312	51.438	
		45.400	2.94	4005.156	51.486	
		45.500	2.94	3970.427	51.534	
		45.600	2.94	3981.516	51.581	
		45.700	2.94	4009.110	51.628	
		45.800	2.94	4028.709	51.675	
		45.900	2.94	4033.137	51.722	
		46.000	2.94	4007.477	51.768	
		46.100	2.94	3991.917	51.814	
		46.200	2.94	3971.205	51.838	
		46.300	2.94	3987.851	51.846	
		46.400	2.94	3976.678	51.872	
		46.500	2.94	3953.909	51.909	
		46.600	2.94	3950.287	51.953	
		46.700	2.94	3958.542	52.000	
		46.800	2.94	3997.707	52.048	
		46.900	2.94	4008.469	52.096	
		47.000	2.94	3992.291	52.145	
		47.100	2.94	3958.882	52.193	
		47.200	2.94	3990.559	52.240	
		47.300	2.94	4031.078	52.288	
		47.400	2.94	4021.704	52.335	
		47.500	2.94	4009.106	52.382	
		47.600	2.94	4027.510	52.429	
		47.700	2.94	4034.426	52.477	
		47.800	2.94	4014.728	52.524	
		47.900	2.94	4007.870	52.571	
		48.000	2.94	4006.561	52.619	
		48.100	2.94	4004.677	52.667	
		48.200	2.94	4000.129	52.715	
		48.300	2.94	3975.436	52.763	
		48.400	2.94	3969.077	52.811	
		48.500	2.94	3987.507	52.860	
		48.600	2.94	4004.863	52.909	
		48.700	2.94	4008.044	52.958	
		48.800	2.94	3958.684	53.000	
		48.900	2.94	3953.397	53.037	
		49.000	2.94	3984.817	53.055	
		49.100	2.94	3999.972	53.064	
		49.200	2.94	3964.312	53.098	
		49.300	2.94	3956.909	53.146	
		49.400	2.94	3979.764	53.193	
		49.500	2.94	3997.623	53.241	
		49.600	2.94	3992.884	53.288	
		49.700	2.94	3977.562	53.335	
		49.800	2.94	3960.970	53.382	
		49.900	2.94	3941.822	53.430	
		50.000	2.94	4065.953	53.477	
		50.100	2.95	4511.118	53.522	
		50.200	2.95	5497.232	53.568	
		50.300	2.95	7331.933	53.613	
		50.400	2.95	9069.099	53.659	
		50.500	2.95	9362.642	53.705	
		50.600	2.95	8467.523	53.752	
		50.700	2.95	7329.575	53.799	
		50.800	2.95	6261.993	53.826	
		50.900	2.95	5305.485	53.844	
		51.000	2.95	4656.684	53.867	
		51.100	2.95	4306.083	53.894	
		51.200	2.95	4102.090	53.935	
		51.300	2.95	3998.779	53.982	
		51.400	2.95	3935.985	54.030	
		51.500	2.95	3907.940	54.079	
		51.600	2.95	3915.711	54.127	
		51.700	2.95	3923.405	54.175	
		51.800	2.95	3934.666	54.223	
		51.900	2.95	3974.406	54.271	
		52.000	2.95	3997.565	54.308	
		52.100	2.95	3984.653	54.340	
		52.200	2.95	3981.092	54.360	
		52.300	2.95	3984.670	54.373	
		52.400	2.95	3977.018	54.411	
		52.500	2.95	3974.406	54.458	
		52.600	2.95	3961.001	54.506	
		52.700	2.95	3962.746	54.553	
		52.800	2.95	3969.457	54.601	
		52.900	2.95	3956.769	54.650	
		53.000	2.95	3944.272	54.699	
		53.100	2.95	3958.327	54.747	
		53.200	2.95	3988.500	54.792	
		53.300	2.95	3966.773	54.836	
		53.400	2.95	3927.810	54.851	
		53.500	2.95	3906.534	54.852	
		53.600	2.95	3898.927	54.919	
		53.700	2.95	3868.539	55.012	
		53.800	2.95	3864.335	55.076	
		53.900	2.95	3913.781	55.126	
		54.000	2.95	3964.340	55.143	
		54.100	2.95	3998.208	55.148	
		54.200	2.95	3995.455	55.179	
		54.300	2.95	3997.099	55.220	
		54.400	2.95	4029.255	55.267	
		54.500	2.95	4016.125	55.316	
		54.600	2.95	3979.238	55.365	
		54.700	2.95	3964.065	55.413	
		54.800	2.95	3966.902	55.435	
		54.900	2.95	3977.063	55.447	
		55.000	2.95	3979.229	55.474	
		55.100	2.95	3964.882	55.509	
		55.200	2.95	4009.290	55.552	
		55.300	2.95	4010.468	55.600	
		55.400	2.95	3973.302	55.647	
		55.500	2.95	3970.046	55.694	
		55.600	2.95	3982.104	55.722	
		55.700	2.95	3994.569	55.744	
		55.800	2.95	3937.849	55.767	
		55.900	2.95	3870.756	55.791	
		56.000	2.95	3855.573	55.832	
		56.100	2.95	3850.211	55.879	
		56.200	2.95	3865.478	55.926	
		56.300	2.95	3912.440	55.973	
		56.400	2.95	3946.520	56.021	
		56.500	2.95	3953.290	56.068	
		56.600	2.95	3968.183	56.106	
		56.700	2.95	3978.842	56.141	
		56.800	2.95	3959.466	56.158	
		56.900	2.95	3970.749	56.169	
		57.000	2.95	3945.605	56.207	
		57.100	2.95	3974.187	56.254	
		57.200	2.95	4006.047	56.301	
		57.300	2.95	4038.928	56.348	
		57.400	2.95	4004.758	56.394	
		57.500	2.95	3967.686	56.438	
		57.600	2.95	3973.667	56.450	
		57.700	2.95	3979.418	56.451	
		57.800	2.95	3991.642	56.487	
		57.900	2.95	4014.465	56.534	
		58.000	2.95	4006.944	56.581	
		58.100	2.95	4009.196	56.628	
		58.200	2.95	3988.229	56.643	
		58.300	2.95	3953.818	56.649	
		58.400	2.95	3954.648	56.681	
		58.500	2.95	3975.023	56.721	
		58.600	2.95	3993.551	56.766	
		58.700	2.95	3985.260	56.813	
		58.800	2.95	3961.248	56.860	
		58.900	2.95	3970.392	56.907	
		59.000	2.95	4000.754	56.930	
		59.100	2.95	3966.055	56.946	
		59.200	2.95	3974.209	56.973	
		59.300	2.95	3979.882	57.002	
		59.400	2.95	3955.744	57.045	
		59.500	2.95	3948.600	57.092	
		59.600	2.95	3972.979	57.140	
		59.700	2.95	3937.137	57.187	
		59.800	2.95	3914.855	57.217	
		59.900	2.95	3923.516	57.244	
		60.000	2.95	3916.059	57.264	
		60.100	2.96	3907.828	57.282	
		60.200	2.96	3902.819	57.323	
		60.300	2.96	3904.927	57.371	
		60.400	2.96	3926.112	57.418	
		60.500	2.96	3950.204	57.465	
		60.600	2.96	3970.813	57.505	
		60.700	2.96	3947.044	57.542	
		60.800	2.96	3940.640	57.557	
		60.900	2.96	3980.828	57.567	
		61.000	2.96	3968.492	57.607	
		61.100	2.96	3931.098	57.655	
		61.200	2.96	3964.753	57.698	
		61.300	2.96	3954.523	57.741	
		61.400	2.96	4018.996	57.752	
		61.500	2.96	3993.551	57.755	
		61.600	2.96	3971.740	57.795	
		61.700	2.96	3987.722	57.843	
		61.800	2.96	3967.065	57.891	
		61.900	2.96	3970.586	57.938	
		62.000	2.96	3978.535	57.985	
		62.100	2.96	3988.238	58.032	
		62.200	2.96	3976.453	58.045	
		62.300	2.96	3953.874	58.049	
		62.400	2.96	3934.073	58.083	
		62.500	2.96	3933.312	58.124	
		62.600	2.96	3941.998	58.171	
		62.700	2.96	3932.852	58.219	
		62.800	2.96	3953.187	58.237	
		62.900	2.96	3992.424	58.248	
		63.000	2.96	4047.422	58.277	
		63.100	2.96	4302.870	58.309	
		63.200	2.96	4565.442	58.353	
		63.300	2.96	4801.205	58.398	
		63.400	2.96	4808.660	58.444	
		63.500	2.96	4621.250	58.490	
		63.600	2.96	4391.560	58.519	
		63.700	2.96	4143.599	58.546	
		63.800	2.96	4037.091	58.565	
		63.900	2.96	4396.246	58.583	
		64.000	2.96	4921.997	58.625	
		64.100	2.96	5938.520	58.673	
		64.200	2.96	6753.787	58.720	
		64.300	2.96	6986.180	58.768	
		64.400	2.96	6763.243	58.807	
		64.500	2.96	6210.155	58.844	
		64.600	2.96	5503.086	58.855	
		64.700	2.96	4888.922	58.862	
		64.800	2.96	4454.507	58.903	
